FILE NAME   = MnO2-8-100        
SAMPLE NAME = Unknow    
TARGET      = Cu
AXIS        =  1 
START ANGLE =  5 
STOP ANGLE  =  80 
STEP WIDTH  =  .02 
DATA NUMBER =  3751 
 5          2700 
 5.02       5387 
 5.04       5167 
 5.06       5067 
 5.08       5113 
 5.1        5073 
 5.12       5253 
 5.14       5320 
 5.16       5660 
 5.18       5053 
 5.2        4907 
 5.22       5153 
 5.24       5280 
 5.26       4880 
 5.28       5087 
 5.3        4873 
 5.32       5133 
 5.34       4887 
 5.36       4880 
 5.38       4833 
 5.4        4847 
 5.42       4807 
 5.44       4667 
 5.46       4633 
 5.48       4860 
 5.5        4580 
 5.52       4900 
 5.54       4760 
 5.56       4987 
 5.58       4527 
 5.6        4733 
 5.62       4547 
 5.64       4713 
 5.66       4480 
 5.68       4620 
 5.7        4333 
 5.72       4547 
 5.74       4560 
 5.76       4180 
 5.78       4673 
 5.8        4393 
 5.82       4293 
 5.84       4420 
 5.86       4233 
 5.88       4360 
 5.9        4420 
 5.92       4420 
 5.94       4487 
 5.96       4413 
 5.98       4087 
 6          4360 
 6.02       4227 
 6.04       4133 
 6.06       4073 
 6.08       4020 
 6.1        4107 
 6.12       4220 
 6.14       4220 
 6.16       4107 
 6.18       4147 
 6.2        4200 
 6.22       3867 
 6.24       3893 
 6.26       3853 
 6.28       4127 
 6.3        4000 
 6.32       4093 
 6.34       3887 
 6.36       3820 
 6.38       3913 
 6.4        4227 
 6.42       4127 
 6.44       4080 
 6.46       3707 
 6.48       3960 
 6.5        3680 
 6.52       3987 
 6.54       3767 
 6.56       3893 
 6.58       4040 
 6.6        3773 
 6.62       4007 
 6.64       3760 
 6.66       3800 
 6.68       2327 
 6.7        3593 
 6.72       3687 
 6.74       3820 
 6.76       3813 
 6.78       3473 
 6.8        3700 
 6.82       3873 
 6.84       3633 
 6.86       3280 
 6.88       3273 
 6.9        3687 
 6.92       3760 
 6.94       3653 
 6.96       3360 
 6.98       3567 
 7          3507 
 7.02       3507 
 7.04       3520 
 7.06       3753 
 7.08       3853 
 7.1        3487 
 7.12       3647 
 7.14       3493 
 7.16       3313 
 7.18       3300 
 7.2        3287 
 7.22       2953 
 7.24       3327 
 7.26       3380 
 7.28       3447 
 7.3        3273 
 7.32       3520 
 7.34       3460 
 7.36       3487 
 7.38       3367 
 7.4        3027 
 7.42       3047 
 7.44       3233 
 7.46       3233 
 7.48       3320 
 7.5        3413 
 7.52       3373 
 7.54       3153 
 7.56       3293 
 7.58       3193 
 7.6        3260 
 7.62       3013 
 7.64       3267 
 7.66       2993 
 7.68       3247 
 7.7        2993 
 7.72       3073 
 7.74       3420 
 7.76       3313 
 7.78       3433 
 7.8        2907 
 7.82       2940 
 7.84       3167 
 7.86       3080 
 7.88       3053 
 7.9        2987 
 7.92       3180 
 7.94       2940 
 7.96       3313 
 7.98       3180 
 8          3233 
 8.02       3133 
 8.04       3040 
 8.06       3020 
 8.08       2947 
 8.1        2893 
 8.12       3087 
 8.14       3027 
 8.16       3167 
 8.18       2900 
 8.2        3020 
 8.22       2980 
 8.24       3000 
 8.26       2947 
 8.28       3147 
 8.3        3140 
 8.32       3073 
 8.34       3053 
 8.36       2853 
 8.38       2853 
 8.4        2753 
 8.42       2960 
 8.44       2980 
 8.46       3053 
 8.48       3013 
 8.5        2673 
 8.52       2820 
 8.54       3013 
 8.56       2720 
 8.58       2813 
 8.6        2687 
 8.62       2813 
 8.64       2867 
 8.66       2840 
 8.68       2953 
 8.7        2987 
 8.72       2773 
 8.74       2893 
 8.76       2713 
 8.78       2947 
 8.8        2840 
 8.82       2833 
 8.84       2787 
 8.86       2673 
 8.88       2840 
 8.9        2807 
 8.92       2600 
 8.94       2667 
 8.96       2887 
 8.98       2647 
 9          2973 
 9.02       2827 
 9.04       2827 
 9.06       2487 
 9.08       2627 
 9.1        2827 
 9.12       2833 
 9.14       2480 
 9.16       2840 
 9.18       2733 
 9.2        2767 
 9.22       2980 
 9.24       2607 
 9.26       2713 
 9.28       2580 
 9.3        2707 
 9.32       2880 
 9.34       2753 
 9.36       2473 
 9.38       2680 
 9.4        2667 
 9.42       2487 
 9.44       2607 
 9.46       2620 
 9.48       2647 
 9.5        2740 
 9.52       2600 
 9.54       2693 
 9.56       2400 
 9.58       2520 
 9.6        2653 
 9.62       2547 
 9.64       2467 
 9.66       2553 
 9.68       2647 
 9.7        2427 
 9.72       2440 
 9.74       2380 
 9.76       2667 
 9.78       2453 
 9.8        2527 
 9.82       2480 
 9.84       2567 
 9.86       2600 
 9.88       2533 
 9.9        2367 
 9.92       2413 
 9.94       2407 
 9.96       2513 
 9.98       2627 
 10         2360 
 10.02      2447 
 10.04      2353 
 10.06      2273 
 10.08      2587 
 10.1       2253 
 10.12      2447 
 10.14      2433 
 10.16      2293 
 10.18      2507 
 10.2       2300 
 10.22      2473 
 10.24      2320 
 10.26      2353 
 10.28      2387 
 10.3       2387 
 10.32      2453 
 10.34      2267 
 10.36      2427 
 10.38      2420 
 10.4       2493 
 10.42      2393 
 10.44      2240 
 10.46      2207 
 10.48      2387 
 10.5       2567 
 10.52      2353 
 10.54      2280 
 10.56      2453 
 10.58      2193 
 10.6       2347 
 10.62      2593 
 10.64      2327 
 10.66      2573 
 10.68      2167 
 10.7       2187 
 10.72      2333 
 10.74      2073 
 10.76      2627 
 10.78      2367 
 10.8       2447 
 10.82      2413 
 10.84      2107 
 10.86      2333 
 10.88      2340 
 10.9       2273 
 10.92      2513 
 10.94      2360 
 10.96      2333 
 10.98      2393 
 11         2560 
 11.02      2333 
 11.04      2333 
 11.06      2233 
 11.08      2127 
 11.1       2360 
 11.12      2393 
 11.14      2307 
 11.16      2300 
 11.18      2273 
 11.2       2160 
 11.22      2360 
 11.24      2213 
 11.26      2240 
 11.28      2347 
 11.3       2167 
 11.32      2260 
 11.34      2280 
 11.36      2027 
 11.38      2227 
 11.4       2280 
 11.42      2107 
 11.44      2487 
 11.46      2353 
 11.48      2313 
 11.5       2100 
 11.52      2240 
 11.54      2200 
 11.56      2133 
 11.58      2300 
 11.6       2220 
 11.62      2127 
 11.64      2233 
 11.66      2213 
 11.68      2133 
 11.7       2140 
 11.72      1940 
 11.74      2220 
 11.76      2000 
 11.78      2167 
 11.8       2167 
 11.82      2013 
 11.84      2220 
 11.86      2067 
 11.88      1933 
 11.9       2047 
 11.92      2193 
 11.94      2247 
 11.96      2040 
 11.98      2240 
 12         1967 
 12.02      2027 
 12.04      2213 
 12.06      2060 
 12.08      2180 
 12.1       1953 
 12.12      2107 
 12.14      2107 
 12.16      2113 
 12.18      1980 
 12.2       2113 
 12.22      2127 
 12.24      2007 
 12.26      2100 
 12.28      2033 
 12.3       2187 
 12.32      1940 
 12.34      2093 
 12.36      1867 
 12.38      1940 
 12.4       1867 
 12.42      2007 
 12.44      1967 
 12.46      2100 
 12.48      1853 
 12.5       2113 
 12.52      2133 
 12.54      1967 
 12.56      2153 
 12.58      1973 
 12.6       1993 
 12.62      2000 
 12.64      2020 
 12.66      1973 
 12.68      1940 
 12.7       1880 
 12.72      2053 
 12.74      1900 
 12.76      1853 
 12.78      2047 
 12.8       1927 
 12.82      2060 
 12.84      2000 
 12.86      1973 
 12.88      1880 
 12.9       1893 
 12.92      2047 
 12.94      2100 
 12.96      2033 
 12.98      1967 
 13         1907 
 13.02      1913 
 13.04      2007 
 13.06      1900 
 13.08      1927 
 13.1       1853 
 13.12      1967 
 13.14      2060 
 13.16      1953 
 13.18      1947 
 13.2       2127 
 13.22      1893 
 13.24      1987 
 13.26      2047 
 13.28      2093 
 13.3       1927 
 13.32      2020 
 13.34      1987 
 13.36      1827 
 13.38      2020 
 13.4       1973 
 13.42      1847 
 13.44      1973 
 13.46      2307 
 13.48      1993 
 13.5       1980 
 13.52      1967 
 13.54      2107 
 13.56      2153 
 13.58      1913 
 13.6       2000 
 13.62      2067 
 13.64      1867 
 13.66      2020 
 13.68      1773 
 13.7       1767 
 13.72      2020 
 13.74      1840 
 13.76      1913 
 13.78      2127 
 13.8       1893 
 13.82      2100 
 13.84      1807 
 13.86      1880 
 13.88      2140 
 13.9       2087 
 13.92      2027 
 13.94      2040 
 13.96      1940 
 13.98      1907 
 14         1927 
 14.02      2080 
 14.04      1900 
 14.06      2067 
 14.08      1980 
 14.1       1947 
 14.12      2007 
 14.14      1813 
 14.16      1893 
 14.18      2260 
 14.2       1900 
 14.22      1887 
 14.24      1940 
 14.26      1720 
 14.28      2127 
 14.3       2033 
 14.32      2053 
 14.34      1880 
 14.36      2027 
 14.38      1720 
 14.4       1927 
 14.42      1913 
 14.44      2060 
 14.46      1753 
 14.48      1980 
 14.5       2113 
 14.52      1800 
 14.54      1893 
 14.56      1840 
 14.58      2060 
 14.6       2173 
 14.62      1887 
 14.64      2067 
 14.66      1853 
 14.68      1987 
 14.7       2067 
 14.72      2040 
 14.74      1773 
 14.76      1993 
 14.78      1693 
 14.8       2027 
 14.82      1860 
 14.84      1840 
 14.86      1973 
 14.88      1867 
 14.9       1973 
 14.92      1947 
 14.94      1960 
 14.96      1987 
 14.98      1867 
 15         1927 
 15.02      1833 
 15.04      1867 
 15.06      1880 
 15.08      1933 
 15.1       1867 
 15.12      2000 
 15.14      1680 
 15.16      1940 
 15.18      1913 
 15.2       1867 
 15.22      2073 
 15.24      1713 
 15.26      1987 
 15.28      1807 
 15.3       1753 
 15.32      1733 
 15.34      1920 
 15.36      1993 
 15.38      1853 
 15.4       1907 
 15.42      1747 
 15.44      1633 
 15.46      1693 
 15.48      1933 
 15.5       1753 
 15.52      1733 
 15.54      1893 
 15.56      1907 
 15.58      1860 
 15.6       1713 
 15.62      1880 
 15.64      1807 
 15.66      1720 
 15.68      1673 
 15.7       1727 
 15.72      1680 
 15.74      1733 
 15.76      1760 
 15.78      1620 
 15.8       1793 
 15.82      1620 
 15.84      1833 
 15.86      1720 
 15.88      1807 
 15.9       1640 
 15.92      1747 
 15.94      1693 
 15.96      1880 
 15.98      1693 
 16         1660 
 16.02      1860 
 16.04      1753 
 16.06      1713 
 16.08      1700 
 16.1       1833 
 16.12      1873 
 16.14      1807 
 16.16      1793 
 16.18      1813 
 16.2       1753 
 16.22      1793 
 16.24      1820 
 16.26      1840 
 16.28      1687 
 16.3       1787 
 16.32      1773 
 16.34      1713 
 16.36      1773 
 16.38      1847 
 16.4       1813 
 16.42      1673 
 16.44      1727 
 16.46      1700 
 16.48      1760 
 16.5       1607 
 16.52      1687 
 16.54      1813 
 16.56      1800 
 16.58      1747 
 16.6       1680 
 16.62      1660 
 16.64      1927 
 16.66      1820 
 16.68      1740 
 16.7       1627 
 16.72      1673 
 16.74      1840 
 16.76      1913 
 16.78      1860 
 16.8       1767 
 16.82      1760 
 16.84      1633 
 16.86      1767 
 16.88      1840 
 16.9       1793 
 16.92      1720 
 16.94      1640 
 16.96      1633 
 16.98      1607 
 17         1720 
 17.02      1807 
 17.04      1667 
 17.06      1913 
 17.08      1727 
 17.1       1553 
 17.12      1660 
 17.14      1673 
 17.16      1860 
 17.18      1653 
 17.2       1707 
 17.22      1733 
 17.24      1693 
 17.26      1633 
 17.28      1787 
 17.3       1807 
 17.32      1647 
 17.34      1680 
 17.36      1700 
 17.38      1653 
 17.4       1773 
 17.42      1553 
 17.44      1767 
 17.46      1800 
 17.48      1773 
 17.5       1833 
 17.52      1873 
 17.54      1840 
 17.56      1700 
 17.58      1853 
 17.6       1627 
 17.62      1800 
 17.64      1700 
 17.66      1593 
 17.68      1673 
 17.7       1640 
 17.72      1600 
 17.74      1880 
 17.76      1713 
 17.78      1740 
 17.8       1760 
 17.82      2007 
 17.84      1967 
 17.86      1800 
 17.88      1993 
 17.9       1887 
 17.92      1973 
 17.94      1860 
 17.96      2020 
 17.98      2147 
 18         2020 
 18.02      1887 
 18.04      1853 
 18.06      1907 
 18.08      2113 
 18.1       1873 
 18.12      1713 
 18.14      1880 
 18.16      1760 
 18.18      1680 
 18.2       1780 
 18.22      1740 
 18.24      2067 
 18.26      1773 
 18.28      1713 
 18.3       1687 
 18.32      1800 
 18.34      1793 
 18.36      1740 
 18.38      1827 
 18.4       1907 
 18.42      2007 
 18.44      2053 
 18.46      2020 
 18.48      1660 
 18.5       1740 
 18.52      1680 
 18.54      1800 
 18.56      1793 
 18.58      1727 
 18.6       1760 
 18.62      1687 
 18.64      1860 
 18.66      1773 
 18.68      1600 
 18.7       1700 
 18.72      1740 
 18.74      1727 
 18.76      1707 
 18.78      1693 
 18.8       1627 
 18.82      1587 
 18.84      1873 
 18.86      1787 
 18.88      1520 
 18.9       1567 
 18.92      1667 
 18.94      1667 
 18.96      1707 
 18.98      1560 
 19         1693 
 19.02      1600 
 19.04      1647 
 19.06      1593 
 19.08      1587 
 19.1       1540 
 19.12      1527 
 19.14      1667 
 19.16      1707 
 19.18      1633 
 19.2       1567 
 19.22      1627 
 19.24      1647 
 19.26      1753 
 19.28      1707 
 19.3       1733 
 19.32      1573 
 19.34      1607 
 19.36      1567 
 19.38      1627 
 19.4       1653 
 19.42      1753 
 19.44      1627 
 19.46      1487 
 19.48      1587 
 19.5       1640 
 19.52      1780 
 19.54      1807 
 19.56      1667 
 19.58      1607 
 19.6       1607 
 19.62      1700 
 19.64      1533 
 19.66      1280 
 19.68      1540 
 19.7       1740 
 19.72      1853 
 19.74      1667 
 19.76      1673 
 19.78      1700 
 19.8       1540 
 19.82      1907 
 19.84      1760 
 19.86      1653 
 19.88      1607 
 19.9       1693 
 19.92      1660 
 19.94      1727 
 19.96      1700 
 19.98      1747 
 20         1560 
 20.02      1647 
 20.04      1580 
 20.06      1720 
 20.08      1693 
 20.1       1787 
 20.12      1560 
 20.14      1720 
 20.16      1640 
 20.18      1607 
 20.2       1720 
 20.22      1533 
 20.24      1633 
 20.26      1860 
 20.28      1760 
 20.3       1753 
 20.32      1547 
 20.34      1833 
 20.36      1653 
 20.38      1627 
 20.4       1487 
 20.42      1680 
 20.44      1633 
 20.46      1773 
 20.48      1747 
 20.5       1647 
 20.52      1653 
 20.54      1647 
 20.56      1793 
 20.58      1527 
 20.6       1680 
 20.62      1693 
 20.64      1793 
 20.66      1567 
 20.68      1660 
 20.7       1713 
 20.72      1727 
 20.74      1620 
 20.76      1613 
 20.78      1587 
 20.8       1567 
 20.82      1653 
 20.84      1787 
 20.86      1747 
 20.88      1720 
 20.9       1740 
 20.92      1787 
 20.94      1653 
 20.96      1707 
 20.98      1473 
 21         1707 
 21.02      1753 
 21.04      1607 
 21.06      1613 
 21.08      1520 
 21.1       1507 
 21.12      1660 
 21.14      1647 
 21.16      1747 
 21.18      1700 
 21.2       1833 
 21.22      1640 
 21.24      1680 
 21.26      1587 
 21.28      1633 
 21.3       1573 
 21.32      1707 
 21.34      1553 
 21.36      1527 
 21.38      1633 
 21.4       1627 
 21.42      1633 
 21.44      1493 
 21.46      1493 
 21.48      1847 
 21.5       1733 
 21.52      1553 
 21.54      1440 
 21.56      1787 
 21.58      1607 
 21.6       1487 
 21.62      1507 
 21.64      1627 
 21.66      1600 
 21.68      1473 
 21.7       1667 
 21.72      1480 
 21.74      1527 
 21.76      1680 
 21.78      1560 
 21.8       1693 
 21.82      1893 
 21.84      1613 
 21.86      1620 
 21.88      1607 
 21.9       1513 
 21.92      1587 
 21.94      1507 
 21.96      1527 
 21.98      1653 
 22         1700 
 22.02      1667 
 22.04      1540 
 22.06      1487 
 22.08      1760 
 22.1       1507 
 22.12      1473 
 22.14      1787 
 22.16      1560 
 22.18      1787 
 22.2       1733 
 22.22      1587 
 22.24      1633 
 22.26      1680 
 22.28      1733 
 22.3       1407 
 22.32      1587 
 22.34      1607 
 22.36      1653 
 22.38      1680 
 22.4       1420 
 22.42      1553 
 22.44      1567 
 22.46      1633 
 22.48      1573 
 22.5       1593 
 22.52      1467 
 22.54      1787 
 22.56      1447 
 22.58      1533 
 22.6       1387 
 22.62      1533 
 22.64      1727 
 22.66      1667 
 22.68      1660 
 22.7       1500 
 22.72      1620 
 22.74      1660 
 22.76      1513 
 22.78      1427 
 22.8       1507 
 22.82      1560 
 22.84      1580 
 22.86      1613 
 22.88      1480 
 22.9       1413 
 22.92      1353 
 22.94      1513 
 22.96      1653 
 22.98      1533 
 23         1513 
 23.02      1427 
 23.04      1493 
 23.06      1533 
 23.08      1473 
 23.1       1453 
 23.12      1540 
 23.14      1373 
 23.16      1333 
 23.18      1467 
 23.2       1460 
 23.22      1300 
 23.24      1573 
 23.26      1567 
 23.28      1367 
 23.3       1393 
 23.32      1547 
 23.34      1447 
 23.36      1327 
 23.38      1327 
 23.4       1447 
 23.42      1480 
 23.44      1440 
 23.46      1527 
 23.48      1420 
 23.5       1460 
 23.52      1273 
 23.54      1240 
 23.56      1380 
 23.58      1213 
 23.6       1293 
 23.62      1240 
 23.64      1340 
 23.66      1353 
 23.68      1420 
 23.7       1207 
 23.72      1347 
 23.74      1467 
 23.76      1553 
 23.78      1487 
 23.8       1133 
 23.82      1353 
 23.84      1193 
 23.86      1433 
 23.88      1293 
 23.9       1327 
 23.92      1393 
 23.94      1340 
 23.96      1493 
 23.98      1227 
 24         1420 
 24.02      1373 
 24.04      1293 
 24.06      1180 
 24.08      1180 
 24.1       1293 
 24.12      1380 
 24.14      1293 
 24.16      1380 
 24.18      1460 
 24.2       1440 
 24.22      1393 
 24.24      1273 
 24.26      1353 
 24.28      1260 
 24.3       1280 
 24.32      1273 
 24.34      1460 
 24.36      1280 
 24.38      1253 
 24.4       1307 
 24.42      1533 
 24.44      1280 
 24.46      1353 
 24.48      1347 
 24.5       1407 
 24.52      1313 
 24.54      1253 
 24.56      1387 
 24.58      1367 
 24.6       1280 
 24.62      1300 
 24.64      1267 
 24.66      1273 
 24.68      1307 
 24.7       1513 
 24.72      1567 
 24.74      1440 
 24.76      1240 
 24.78      1493 
 24.8       1553 
 24.82      1340 
 24.84      1347 
 24.86      1460 
 24.88      1360 
 24.9       1573 
 24.92      1640 
 24.94      1520 
 24.96      1580 
 24.98      1727 
 25         1573 
 25.02      1533 
 25.04      1767 
 25.06      1600 
 25.08      1560 
 25.1       1507 
 25.12      1773 
 25.14      1767 
 25.16      1473 
 25.18      1533 
 25.2       1767 
 25.22      1747 
 25.24      1607 
 25.26      1527 
 25.28      1760 
 25.3       1647 
 25.32      1827 
 25.34      1773 
 25.36      1800 
 25.38      1767 
 25.4       1813 
 25.42      1967 
 25.44      1993 
 25.46      2013 
 25.48      2227 
 25.5       2033 
 25.52      2140 
 25.54      2187 
 25.56      2293 
 25.58      2480 
 25.6       2347 
 25.62      2513 
 25.64      2680 
 25.66      2860 
 25.68      3127 
 25.7       3393 
 25.72      3327 
 25.74      3400 
 25.76      3640 
 25.78      3907 
 25.8       4427 
 25.82      4707 
 25.84      5220 
 25.86      5653 
 25.88      6347 
 25.9       7020 
 25.92      7800 
 25.94      8840 
 25.96      10133 
 25.98      11773 
 26         13620 
 26.02      15067 
 26.04      17740 
 26.06      20860 
 26.08      24353 
 26.1       27833 
 26.12      31947 
 26.14      35407 
 26.16      39393 
 26.18      41140 
 26.2       40460 
 26.22      38480 
 26.24      35920 
 26.26      32247 
 26.28      27140 
 26.3       23087 
 26.32      19133 
 26.34      15807 
 26.36      13740 
 26.38      10933 
 26.4       9780 
 26.42      8793 
 26.44      7687 
 26.46      6967 
 26.48      6393 
 26.5       5747 
 26.52      4967 
 26.54      4993 
 26.56      4700 
 26.58      4400 
 26.6       4127 
 26.62      3747 
 26.64      3420 
 26.66      3260 
 26.68      3387 
 26.7       3133 
 26.72      3167 
 26.74      2960 
 26.76      2847 
 26.78      2813 
 26.8       2833 
 26.82      2693 
 26.84      2587 
 26.86      2540 
 26.88      2393 
 26.9       2087 
 26.92      2207 
 26.94      1933 
 26.96      2127 
 26.98      1913 
 27         2093 
 27.02      1873 
 27.04      2173 
 27.06      1887 
 27.08      1940 
 27.1       1800 
 27.12      1887 
 27.14      1660 
 27.16      1787 
 27.18      1820 
 27.2       1687 
 27.22      1660 
 27.24      1667 
 27.26      1707 
 27.28      1607 
 27.3       1740 
 27.32      1707 
 27.34      1520 
 27.36      1547 
 27.38      1667 
 27.4       1340 
 27.42      1373 
 27.44      1460 
 27.46      1540 
 27.48      1573 
 27.5       1513 
 27.52      1427 
 27.54      1280 
 27.56      1327 
 27.58      1233 
 27.6       1320 
 27.62      1360 
 27.64      1233 
 27.66      1460 
 27.68      1387 
 27.7       1407 
 27.72      1187 
 27.74      1287 
 27.76      1167 
 27.78      1200 
 27.8       1273 
 27.82      1200 
 27.84      1367 
 27.86      1227 
 27.88      1287 
 27.9       1373 
 27.92      1300 
 27.94      1260 
 27.96      1280 
 27.98      1313 
 28         1293 
 28.02      1233 
 28.04      1213 
 28.06      1140 
 28.08      1167 
 28.1       1300 
 28.12      1193 
 28.14      1267 
 28.16      1253 
 28.18      1140 
 28.2       1313 
 28.22      1253 
 28.24      1140 
 28.26      1327 
 28.28      1267 
 28.3       1260 
 28.32      1000 
 28.34      973 
 28.36      1173 
 28.38      1200 
 28.4       1100 
 28.42      1173 
 28.44      1240 
 28.46      1100 
 28.48      1093 
 28.5       1220 
 28.52      1160 
 28.54      1280 
 28.56      1087 
 28.58      1173 
 28.6       1153 
 28.62      1127 
 28.64      1107 
 28.66      1180 
 28.68      1067 
 28.7       1007 
 28.72      980 
 28.74      1107 
 28.76      1193 
 28.78      1180 
 28.8       1193 
 28.82      1153 
 28.84      987 
 28.86      913 
 28.88      940 
 28.9       1160 
 28.92      1160 
 28.94      1013 
 28.96      953 
 28.98      1073 
 29         1027 
 29.02      1040 
 29.04      1100 
 29.06      947 
 29.08      993 
 29.1       953 
 29.12      907 
 29.14      1073 
 29.16      1053 
 29.18      1047 
 29.2       960 
 29.22      860 
 29.24      1120 
 29.26      967 
 29.28      1007 
 29.3       1100 
 29.32      1027 
 29.34      1073 
 29.36      1020 
 29.38      1120 
 29.4       827 
 29.42      973 
 29.44      1060 
 29.46      847 
 29.48      947 
 29.5       960 
 29.52      920 
 29.54      847 
 29.56      773 
 29.58      1007 
 29.6       867 
 29.62      1027 
 29.64      893 
 29.66      920 
 29.68      907 
 29.7       840 
 29.72      907 
 29.74      700 
 29.76      740 
 29.78      747 
 29.8       780 
 29.82      747 
 29.84      820 
 29.86      787 
 29.88      713 
 29.9       780 
 29.92      693 
 29.94      780 
 29.96      700 
 29.98      780 
 30         860 
 30.02      787 
 30.04      707 
 30.06      693 
 30.08      660 
 30.1       773 
 30.12      900 
 30.14      760 
 30.16      687 
 30.18      787 
 30.2       693 
 30.22      713 
 30.24      760 
 30.26      753 
 30.28      707 
 30.3       807 
 30.32      873 
 30.34      640 
 30.36      733 
 30.38      720 
 30.4       713 
 30.42      613 
 30.44      713 
 30.46      800 
 30.48      653 
 30.5       813 
 30.52      740 
 30.54      707 
 30.56      560 
 30.58      747 
 30.6       640 
 30.62      580 
 30.64      693 
 30.66      827 
 30.68      727 
 30.7       727 
 30.72      607 
 30.74      693 
 30.76      627 
 30.78      693 
 30.8       747 
 30.82      573 
 30.84      613 
 30.86      587 
 30.88      767 
 30.9       720 
 30.92      740 
 30.94      633 
 30.96      600 
 30.98      653 
 31         647 
 31.02      673 
 31.04      633 
 31.06      620 
 31.08      627 
 31.1       600 
 31.12      653 
 31.14      753 
 31.16      640 
 31.18      640 
 31.2       740 
 31.22      613 
 31.24      593 
 31.26      600 
 31.28      580 
 31.3       713 
 31.32      613 
 31.34      647 
 31.36      720 
 31.38      653 
 31.4       660 
 31.42      687 
 31.44      640 
 31.46      653 
 31.48      567 
 31.5       587 
 31.52      613 
 31.54      653 
 31.56      647 
 31.58      667 
 31.6       720 
 31.62      680 
 31.64      580 
 31.66      707 
 31.68      580 
 31.7       620 
 31.72      660 
 31.74      620 
 31.76      693 
 31.78      600 
 31.8       620 
 31.82      700 
 31.84      640 
 31.86      633 
 31.88      667 
 31.9       593 
 31.92      600 
 31.94      593 
 31.96      700 
 31.98      587 
 32         587 
 32.02      587 
 32.04      527 
 32.06      653 
 32.08      653 
 32.1       620 
 32.12      513 
 32.14      613 
 32.16      487 
 32.18      613 
 32.2       660 
 32.22      593 
 32.24      573 
 32.26      567 
 32.28      627 
 32.3       620 
 32.32      573 
 32.34      600 
 32.36      527 
 32.38      620 
 32.4       560 
 32.42      687 
 32.44      653 
 32.46      573 
 32.48      620 
 32.5       587 
 32.52      660 
 32.54      600 
 32.56      647 
 32.58      747 
 32.6       573 
 32.62      633 
 32.64      700 
 32.66      640 
 32.68      627 
 32.7       573 
 32.72      520 
 32.74      540 
 32.76      627 
 32.78      600 
 32.8       527 
 32.82      647 
 32.84      693 
 32.86      793 
 32.88      620 
 32.9       600 
 32.92      693 
 32.94      627 
 32.96      733 
 32.98      680 
 33         673 
 33.02      567 
 33.04      587 
 33.06      647 
 33.08      640 
 33.1       607 
 33.12      540 
 33.14      707 
 33.16      653 
 33.18      633 
 33.2       707 
 33.22      753 
 33.24      673 
 33.26      807 
 33.28      760 
 33.3       740 
 33.32      727 
 33.34      840 
 33.36      833 
 33.38      800 
 33.4       907 
 33.42      860 
 33.44      853 
 33.46      940 
 33.48      887 
 33.5       980 
 33.52      1087 
 33.54      1147 
 33.56      1360 
 33.58      1387 
 33.6       1273 
 33.62      1553 
 33.64      1480 
 33.66      1733 
 33.68      1993 
 33.7       2113 
 33.72      2287 
 33.74      2633 
 33.76      2933 
 33.78      3627 
 33.8       4027 
 33.82      4920 
 33.84      5900 
 33.86      6567 
 33.88      7860 
 33.9       9473 
 33.92      10533 
 33.94      12520 
 33.96      13867 
 33.98      14407 
 34         15020 
 34.02      13787 
 34.04      13407 
 34.06      12660 
 34.08      11153 
 34.1       9700 
 34.12      7900 
 34.14      7160 
 34.16      5967 
 34.18      5233 
 34.2       4480 
 34.22      3727 
 34.24      3027 
 34.26      2647 
 34.28      2593 
 34.3       2233 
 34.32      2027 
 34.34      1767 
 34.36      1833 
 34.38      1760 
 34.4       1480 
 34.42      1640 
 34.44      1247 
 34.46      1360 
 34.48      1420 
 34.5       1207 
 34.52      1307 
 34.54      1220 
 34.56      1127 
 34.58      1140 
 34.6       1173 
 34.62      1213 
 34.64      980 
 34.66      1013 
 34.68      1047 
 34.7       987 
 34.72      1053 
 34.74      927 
 34.76      993 
 34.78      833 
 34.8       1027 
 34.82      873 
 34.84      893 
 34.86      800 
 34.88      753 
 34.9       880 
 34.92      820 
 34.94      813 
 34.96      700 
 34.98      773 
 35         753 
 35.02      947 
 35.04      773 
 35.06      753 
 35.08      720 
 35.1       840 
 35.12      860 
 35.14      813 
 35.16      733 
 35.18      827 
 35.2       920 
 35.22      820 
 35.24      880 
 35.26      927 
 35.28      893 
 35.3       987 
 35.32      1080 
 35.34      1067 
 35.36      1313 
 35.38      1473 
 35.4       1673 
 35.42      1773 
 35.44      2213 
 35.46      2313 
 35.48      3000 
 35.5       3700 
 35.52      4220 
 35.54      5273 
 35.56      5833 
 35.58      7187 
 35.6       7240 
 35.62      7167 
 35.64      6953 
 35.66      6480 
 35.68      5740 
 35.7       5227 
 35.72      4553 
 35.74      4087 
 35.76      3413 
 35.78      2907 
 35.8       2413 
 35.82      2160 
 35.84      1980 
 35.86      1633 
 35.88      1780 
 35.9       1467 
 35.92      1420 
 35.94      1213 
 35.96      1380 
 35.98      1240 
 36         1300 
 36.02      1153 
 36.04      1087 
 36.06      1140 
 36.08      1013 
 36.1       1153 
 36.12      1173 
 36.14      987 
 36.16      993 
 36.18      960 
 36.2       1020 
 36.22      933 
 36.24      1067 
 36.26      940 
 36.28      953 
 36.3       1000 
 36.32      880 
 36.34      940 
 36.36      987 
 36.38      1080 
 36.4       1000 
 36.42      1100 
 36.44      933 
 36.46      1100 
 36.48      1113 
 36.5       1120 
 36.52      1087 
 36.54      1153 
 36.56      1093 
 36.58      1133 
 36.6       1147 
 36.62      1147 
 36.64      1280 
 36.66      1233 
 36.68      1073 
 36.7       1207 
 36.72      1367 
 36.74      1480 
 36.76      1160 
 36.78      1400 
 36.8       1367 
 36.82      1447 
 36.84      1500 
 36.86      1633 
 36.88      1800 
 36.9       2080 
 36.92      2133 
 36.94      2147 
 36.96      2473 
 36.98      2913 
 37         3053 
 37.02      3607 
 37.04      4273 
 37.06      4913 
 37.08      5680 
 37.1       6720 
 37.12      8120 
 37.14      10107 
 37.16      12000 
 37.18      13893 
 37.2       15907 
 37.22      17147 
 37.24      18773 
 37.26      18620 
 37.28      18387 
 37.3       17260 
 37.32      15540 
 37.34      14133 
 37.36      12440 
 37.38      10933 
 37.4       9307 
 37.42      7660 
 37.44      6320 
 37.46      5540 
 37.48      4747 
 37.5       4027 
 37.52      3580 
 37.54      3153 
 37.56      2887 
 37.58      2767 
 37.6       2667 
 37.62      2260 
 37.64      2060 
 37.66      1993 
 37.68      1913 
 37.7       1827 
 37.72      1767 
 37.74      1753 
 37.76      1673 
 37.78      1540 
 37.8       1473 
 37.82      1487 
 37.84      1507 
 37.86      1473 
 37.88      1213 
 37.9       1460 
 37.92      1247 
 37.94      1287 
 37.96      1300 
 37.98      1153 
 38         1333 
 38.02      1140 
 38.04      1313 
 38.06      1460 
 38.08      1327 
 38.1       1353 
 38.12      1427 
 38.14      1193 
 38.16      1247 
 38.18      1233 
 38.2       1313 
 38.22      1207 
 38.24      1173 
 38.26      1087 
 38.28      1013 
 38.3       820 
 38.32      1120 
 38.34      907 
 38.36      953 
 38.38      953 
 38.4       847 
 38.42      847 
 38.44      933 
 38.46      727 
 38.48      700 
 38.5       727 
 38.52      760 
 38.54      787 
 38.56      787 
 38.58      860 
 38.6       753 
 38.62      667 
 38.64      833 
 38.66      687 
 38.68      740 
 38.7       813 
 38.72      787 
 38.74      800 
 38.76      760 
 38.78      940 
 38.8       800 
 38.82      853 
 38.84      953 
 38.86      933 
 38.88      847 
 38.9       907 
 38.92      1020 
 38.94      1020 
 38.96      940 
 38.98      960 
 39         860 
 39.02      907 
 39.04      1007 
 39.06      747 
 39.08      840 
 39.1       907 
 39.12      793 
 39.14      853 
 39.16      887 
 39.18      960 
 39.2       673 
 39.22      707 
 39.24      907 
 39.26      840 
 39.28      953 
 39.3       947 
 39.32      980 
 39.34      1047 
 39.36      1087 
 39.38      1053 
 39.4       1227 
 39.42      1253 
 39.44      1540 
 39.46      1527 
 39.48      1587 
 39.5       1800 
 39.52      2120 
 39.54      2407 
 39.56      2980 
 39.58      3340 
 39.6       4020 
 39.62      4667 
 39.64      5473 
 39.66      5987 
 39.68      6567 
 39.7       6500 
 39.72      6780 
 39.74      6540 
 39.76      5900 
 39.78      5447 
 39.8       4833 
 39.82      4613 
 39.84      3853 
 39.86      3333 
 39.88      2853 
 39.9       2447 
 39.92      2120 
 39.94      1800 
 39.96      1687 
 39.98      1493 
 40         1600 
 40.02      1413 
 40.04      1227 
 40.06      1173 
 40.08      1153 
 40.1       1093 
 40.12      1140 
 40.14      1067 
 40.16      1040 
 40.18      1047 
 40.2       1027 
 40.22      1027 
 40.24      1040 
 40.26      1100 
 40.28      1007 
 40.3       1220 
 40.32      1380 
 40.34      1447 
 40.36      1487 
 40.38      1807 
 40.4       2060 
 40.42      2100 
 40.44      2160 
 40.46      2120 
 40.48      2193 
 40.5       1980 
 40.52      1960 
 40.54      1940 
 40.56      1667 
 40.58      1773 
 40.6       1627 
 40.62      1440 
 40.64      1187 
 40.66      1273 
 40.68      1300 
 40.7       1040 
 40.72      1027 
 40.74      947 
 40.76      1087 
 40.78      1100 
 40.8       993 
 40.82      1100 
 40.84      1113 
 40.86      1200 
 40.88      1187 
 40.9       1373 
 40.92      1480 
 40.94      1773 
 40.96      2260 
 40.98      2533 
 41         2920 
 41.02      3553 
 41.04      4100 
 41.06      4840 
 41.08      5447 
 41.1       5660 
 41.12      6507 
 41.14      5800 
 41.16      5767 
 41.18      5713 
 41.2       4913 
 41.22      4493 
 41.24      4127 
 41.26      3600 
 41.28      3047 
 41.3       2720 
 41.32      1213 
 41.34      1680 
 41.36      1567 
 41.38      1660 
 41.4       1367 
 41.42      1207 
 41.44      1113 
 41.46      1073 
 41.48      893 
 41.5       933 
 41.52      953 
 41.54      787 
 41.56      807 
 41.58      867 
 41.6       813 
 41.62      753 
 41.64      780 
 41.66      820 
 41.68      893 
 41.7       807 
 41.72      653 
 41.74      787 
 41.76      820 
 41.78      627 
 41.8       853 
 41.82      720 
 41.84      733 
 41.86      600 
 41.88      820 
 41.9       687 
 41.92      800 
 41.94      680 
 41.96      553 
 41.98      587 
 42         620 
 42.02      647 
 42.04      613 
 42.06      760 
 42.08      667 
 42.1       520 
 42.12      587 
 42.14      607 
 42.16      640 
 42.18      693 
 42.2       607 
 42.22      587 
 42.24      587 
 42.26      587 
 42.28      587 
 42.3       587 
 42.32      613 
 42.34      607 
 42.36      667 
 42.38      507 
 42.4       593 
 42.42      427 
 42.44      553 
 42.46      667 
 42.48      560 
 42.5       573 
 42.52      647 
 42.54      500 
 42.56      613 
 42.58      513 
 42.6       587 
 42.62      587 
 42.64      573 
 42.66      540 
 42.68      533 
 42.7       567 
 42.72      587 
 42.74      580 
 42.76      560 
 42.78      620 
 42.8       613 
 42.82      493 
 42.84      500 
 42.86      553 
 42.88      573 
 42.9       493 
 42.92      493 
 42.94      447 
 42.96      507 
 42.98      487 
 43         540 
 43.02      480 
 43.04      620 
 43.06      560 
 43.08      453 
 43.1       473 
 43.12      520 
 43.14      433 
 43.16      560 
 43.18      480 
 43.2       593 
 43.22      480 
 43.24      527 
 43.26      527 
 43.28      507 
 43.3       427 
 43.32      373 
 43.34      440 
 43.36      380 
 43.38      473 
 43.4       433 
 43.42      467 
 43.44      387 
 43.46      520 
 43.48      447 
 43.5       373 
 43.52      407 
 43.54      460 
 43.56      440 
 43.58      480 
 43.6       327 
 43.62      513 
 43.64      520 
 43.66      287 
 43.68      480 
 43.7       467 
 43.72      360 
 43.74      580 
 43.76      387 
 43.78      567 
 43.8       427 
 43.82      413 
 43.84      487 
 43.86      353 
 43.88      440 
 43.9       393 
 43.92      400 
 43.94      380 
 43.96      493 
 43.98      433 
 44         360 
 44.02      373 
 44.04      547 
 44.06      467 
 44.08      493 
 44.1       420 
 44.12      433 
 44.14      387 
 44.16      487 
 44.18      420 
 44.2       380 
 44.22      420 
 44.24      407 
 44.26      347 
 44.28      460 
 44.3       340 
 44.32      420 
 44.34      393 
 44.36      513 
 44.38      487 
 44.4       420 
 44.42      380 
 44.44      473 
 44.46      380 
 44.48      340 
 44.5       400 
 44.52      393 
 44.54      320 
 44.56      373 
 44.58      307 
 44.6       533 
 44.62      367 
 44.64      320 
 44.66      367 
 44.68      387 
 44.7       420 
 44.72      453 
 44.74      320 
 44.76      387 
 44.78      313 
 44.8       347 
 44.82      353 
 44.84      433 
 44.86      400 
 44.88      420 
 44.9       353 
 44.92      353 
 44.94      433 
 44.96      387 
 44.98      333 
 45         327 
 45.02      340 
 45.04      433 
 45.06      347 
 45.08      353 
 45.1       387 
 45.12      327 
 45.14      387 
 45.16      447 
 45.18      380 
 45.2       380 
 45.22      427 
 45.24      380 
 45.26      367 
 45.28      327 
 45.3       407 
 45.32      267 
 45.34      340 
 45.36      527 
 45.38      347 
 45.4       387 
 45.42      360 
 45.44      367 
 45.46      387 
 45.48      393 
 45.5       380 
 45.52      427 
 45.54      347 
 45.56      373 
 45.58      360 
 45.6       400 
 45.62      320 
 45.64      327 
 45.66      373 
 45.68      400 
 45.7       407 
 45.72      393 
 45.74      380 
 45.76      427 
 45.78      407 
 45.8       360 
 45.82      287 
 45.84      407 
 45.86      360 
 45.88      427 
 45.9       453 
 45.92      393 
 45.94      387 
 45.96      380 
 45.98      367 
 46         327 
 46.02      407 
 46.04      347 
 46.06      373 
 46.08      427 
 46.1       347 
 46.12      360 
 46.14      493 
 46.16      380 
 46.18      500 
 46.2       387 
 46.22      320 
 46.24      460 
 46.26      440 
 46.28      393 
 46.3       367 
 46.32      327 
 46.34      280 
 46.36      360 
 46.38      447 
 46.4       380 
 46.42      427 
 46.44      360 
 46.46      307 
 46.48      320 
 46.5       353 
 46.52      340 
 46.54      347 
 46.56      387 
 46.58      400 
 46.6       407 
 46.62      513 
 46.64      360 
 46.66      473 
 46.68      420 
 46.7       400 
 46.72      333 
 46.74      347 
 46.76      307 
 46.78      333 
 46.8       427 
 46.82      373 
 46.84      433 
 46.86      320 
 46.88      307 
 46.9       260 
 46.92      360 
 46.94      347 
 46.96      387 
 46.98      367 
 47         293 
 47.02      327 
 47.04      400 
 47.06      293 
 47.08      287 
 47.1       407 
 47.12      420 
 47.14      333 
 47.16      420 
 47.18      360 
 47.2       307 
 47.22      280 
 47.24      313 
 47.26      387 
 47.28      453 
 47.3       380 
 47.32      433 
 47.34      460 
 47.36      327 
 47.38      340 
 47.4       307 
 47.42      367 
 47.44      340 
 47.46      353 
 47.48      347 
 47.5       413 
 47.52      287 
 47.54      307 
 47.56      300 
 47.58      420 
 47.6       407 
 47.62      380 
 47.64      413 
 47.66      293 
 47.68      300 
 47.7       307 
 47.72      327 
 47.74      347 
 47.76      347 
 47.78      320 
 47.8       487 
 47.82      280 
 47.84      307 
 47.86      320 
 47.88      387 
 47.9       407 
 47.92      327 
 47.94      400 
 47.96      273 
 47.98      327 
 48         293 
 48.02      260 
 48.04      440 
 48.06      353 
 48.08      307 
 48.1       393 
 48.12      340 
 48.14      380 
 48.16      367 
 48.18      373 
 48.2       353 
 48.22      373 
 48.24      347 
 48.26      373 
 48.28      333 
 48.3       433 
 48.32      353 
 48.34      347 
 48.36      413 
 48.38      380 
 48.4       407 
 48.42      367 
 48.44      360 
 48.46      373 
 48.48      380 
 48.5       493 
 48.52      447 
 48.54      467 
 48.56      387 
 48.58      440 
 48.6       467 
 48.62      413 
 48.64      453 
 48.66      420 
 48.68      447 
 48.7       447 
 48.72      633 
 48.74      513 
 48.76      473 
 48.78      620 
 48.8       540 
 48.82      567 
 48.84      600 
 48.86      493 
 48.88      473 
 48.9       513 
 48.92      413 
 48.94      460 
 48.96      493 
 48.98      433 
 49         400 
 49.02      480 
 49.04      420 
 49.06      387 
 49.08      407 
 49.1       413 
 49.12      387 
 49.14      453 
 49.16      393 
 49.18      347 
 49.2       453 
 49.22      480 
 49.24      447 
 49.26      373 
 49.28      307 
 49.3       333 
 49.32      347 
 49.34      413 
 49.36      433 
 49.38      460 
 49.4       427 
 49.42      387 
 49.44      460 
 49.46      367 
 49.48      373 
 49.5       420 
 49.52      507 
 49.54      500 
 49.56      440 
 49.58      447 
 49.6       373 
 49.62      487 
 49.64      473 
 49.66      400 
 49.68      400 
 49.7       467 
 49.72      360 
 49.74      480 
 49.76      347 
 49.78      387 
 49.8       420 
 49.82      387 
 49.84      507 
 49.86      480 
 49.88      500 
 49.9       487 
 49.92      527 
 49.94      420 
 49.96      447 
 49.98      487 
 50         500 
 50.02      547 
 50.04      553 
 50.06      367 
 50.08      480 
 50.1       413 
 50.12      493 
 50.14      607 
 50.16      460 
 50.18      500 
 50.2       520 
 50.22      447 
 50.24      413 
 50.26      607 
 50.28      527 
 50.3       540 
 50.32      467 
 50.34      633 
 50.36      587 
 50.38      487 
 50.4       460 
 50.42      713 
 50.44      513 
 50.46      540 
 50.48      647 
 50.5       613 
 50.52      580 
 50.54      627 
 50.56      553 
 50.58      593 
 50.6       640 
 50.62      813 
 50.64      720 
 50.66      780 
 50.68      753 
 50.7       780 
 50.72      787 
 50.74      973 
 50.76      940 
 50.78      933 
 50.8       1000 
 50.82      1087 
 50.84      1053 
 50.86      1147 
 50.88      1400 
 50.9       1320 
 50.92      1393 
 50.94      1500 
 50.96      1600 
 50.98      1800 
 51         1867 
 51.02      1893 
 51.04      2507 
 51.06      2573 
 51.08      3187 
 51.1       3627 
 51.12      4120 
 51.14      4747 
 51.16      5607 
 51.18      6213 
 51.2       7780 
 51.22      8513 
 51.24      9353 
 51.26      9433 
 51.28      10613 
 51.3       10067 
 51.32      10253 
 51.34      9533 
 51.36      9487 
 51.38      8073 
 51.4       7867 
 51.42      8013 
 51.44      6653 
 51.46      6027 
 51.48      5420 
 51.5       4580 
 51.52      4233 
 51.54      3760 
 51.56      3327 
 51.58      3120 
 51.6       2767 
 51.62      2533 
 51.64      2147 
 51.66      2027 
 51.68      1800 
 51.7       1807 
 51.72      1960 
 51.74      1840 
 51.76      1673 
 51.78      1460 
 51.8       1467 
 51.82      1567 
 51.84      1353 
 51.86      1327 
 51.88      1340 
 51.9       1147 
 51.92      1293 
 51.94      1240 
 51.96      1040 
 51.98      1167 
 52         1013 
 52.02      1120 
 52.04      953 
 52.06      887 
 52.08      860 
 52.1       953 
 52.12      793 
 52.14      860 
 52.16      780 
 52.18      807 
 52.2       807 
 52.22      807 
 52.24      720 
 52.26      867 
 52.28      753 
 52.3       767 
 52.32      727 
 52.34      693 
 52.36      720 
 52.38      700 
 52.4       700 
 52.42      727 
 52.44      767 
 52.46      833 
 52.48      793 
 52.5       640 
 52.52      747 
 52.54      600 
 52.56      720 
 52.58      807 
 52.6       740 
 52.62      680 
 52.64      567 
 52.66      733 
 52.68      773 
 52.7       660 
 52.72      667 
 52.74      607 
 52.76      673 
 52.78      607 
 52.8       627 
 52.82      733 
 52.84      707 
 52.86      587 
 52.88      580 
 52.9       667 
 52.92      653 
 52.94      593 
 52.96      687 
 52.98      740 
 53         647 
 53.02      620 
 53.04      707 
 53.06      747 
 53.08      800 
 53.1       673 
 53.12      687 
 53.14      767 
 53.16      727 
 53.18      800 
 53.2       707 
 53.22      700 
 53.24      740 
 53.26      860 
 53.28      733 
 53.3       933 
 53.32      860 
 53.34      773 
 53.36      827 
 53.38      840 
 53.4       813 
 53.42      1033 
 53.44      1047 
 53.46      960 
 53.48      1140 
 53.5       1093 
 53.52      1313 
 53.54      1387 
 53.56      1387 
 53.58      1640 
 53.6       1533 
 53.62      1740 
 53.64      2100 
 53.66      2207 
 53.68      2587 
 53.7       3160 
 53.72      3953 
 53.74      4453 
 53.76      4747 
 53.78      5220 
 53.8       5713 
 53.82      5747 
 53.84      5520 
 53.86      5433 
 53.88      5627 
 53.9       4927 
 53.92      4433 
 53.94      4600 
 53.96      4240 
 53.98      3720 
 54         3280 
 54.02      2913 
 54.04      2633 
 54.06      2433 
 54.08      2107 
 54.1       2080 
 54.12      1600 
 54.14      1693 
 54.16      1647 
 54.18      1540 
 54.2       1393 
 54.22      1380 
 54.24      1340 
 54.26      1433 
 54.28      1207 
 54.3       1233 
 54.32      1327 
 54.34      1420 
 54.36      1440 
 54.38      1213 
 54.4       1420 
 54.42      1500 
 54.44      1273 
 54.46      1380 
 54.48      1400 
 54.5       1487 
 54.52      1620 
 54.54      1587 
 54.56      1733 
 54.58      1947 
 54.6       2107 
 54.62      2193 
 54.64      2193 
 54.66      2620 
 54.68      3040 
 54.7       3247 
 54.72      3580 
 54.74      4387 
 54.76      4840 
 54.78      5720 
 54.8       7040 
 54.82      8473 
 54.84      10167 
 54.86      11933 
 54.88      14167 
 54.9       15693 
 54.92      16187 
 54.94      16487 
 54.96      16367 
 54.98      15467 
 55         14933 
 55.02      14240 
 55.04      13387 
 55.06      12660 
 55.08      12027 
 55.1       11420 
 55.12      10100 
 55.14      8940 
 55.16      8020 
 55.18      6433 
 55.2       5493 
 55.22      4873 
 55.24      4347 
 55.26      3860 
 55.28      3347 
 55.3       2960 
 55.32      2840 
 55.34      2600 
 55.36      2287 
 55.38      2160 
 55.4       2027 
 55.42      1953 
 55.44      2040 
 55.46      1940 
 55.48      1620 
 55.5       1820 
 55.52      1773 
 55.54      1600 
 55.56      1607 
 55.58      1527 
 55.6       1687 
 55.62      1693 
 55.64      1587 
 55.66      1553 
 55.68      1587 
 55.7       1493 
 55.72      1720 
 55.74      1393 
 55.76      1453 
 55.78      1540 
 55.8       1613 
 55.82      1687 
 55.84      1533 
 55.86      1633 
 55.88      1547 
 55.9       1567 
 55.92      1887 
 55.94      1800 
 55.96      1860 
 55.98      1940 
 56         2000 
 56.02      1973 
 56.04      2333 
 56.06      2700 
 56.08      3113 
 56.1       2987 
 56.12      3767 
 56.14      3827 
 56.16      4253 
 56.18      4687 
 56.2       4693 
 56.22      4447 
 56.24      4387 
 56.26      3873 
 56.28      3860 
 56.3       3793 
 56.32      3613 
 56.34      3407 
 56.36      3240 
 56.38      2660 
 56.4       3060 
 56.42      2613 
 56.44      2380 
 56.46      2273 
 56.48      2207 
 56.5       1860 
 56.52      1600 
 56.54      1687 
 56.56      1500 
 56.58      1553 
 56.6       1433 
 56.62      1287 
 56.64      1313 
 56.66      1160 
 56.68      1273 
 56.7       1200 
 56.72      1220 
 56.74      1107 
 56.76      1000 
 56.78      1073 
 56.8       1167 
 56.82      1133 
 56.84      953 
 56.86      993 
 56.88      1060 
 56.9       880 
 56.92      1020 
 56.94      880 
 56.96      933 
 56.98      880 
 57         940 
 57.02      807 
 57.04      780 
 57.06      787 
 57.08      880 
 57.1       907 
 57.12      860 
 57.14      813 
 57.16      907 
 57.18      813 
 57.2       973 
 57.22      813 
 57.24      727 
 57.26      767 
 57.28      893 
 57.3       873 
 57.32      833 
 57.34      833 
 57.36      940 
 57.38      720 
 57.4       627 
 57.42      807 
 57.44      653 
 57.46      680 
 57.48      767 
 57.5       667 
 57.52      613 
 57.54      653 
 57.56      693 
 57.58      640 
 57.6       660 
 57.62      560 
 57.64      467 
 57.66      620 
 57.68      613 
 57.7       753 
 57.72      747 
 57.74      533 
 57.76      567 
 57.78      613 
 57.8       580 
 57.82      553 
 57.84      520 
 57.86      653 
 57.88      660 
 57.9       673 
 57.92      640 
 57.94      587 
 57.96      680 
 57.98      520 
 58         727 
 58.02      667 
 58.04      647 
 58.06      560 
 58.08      567 
 58.1       620 
 58.12      647 
 58.14      600 
 58.16      560 
 58.18      760 
 58.2       580 
 58.22      553 
 58.24      533 
 58.26      653 
 58.28      600 
 58.3       520 
 58.32      553 
 58.34      660 
 58.36      460 
 58.38      487 
 58.4       560 
 58.42      480 
 58.44      580 
 58.46      573 
 58.48      667 
 58.5       520 
 58.52      527 
 58.54      527 
 58.56      493 
 58.58      567 
 58.6       573 
 58.62      527 
 58.64      513 
 58.66      473 
 58.68      507 
 58.7       607 
 58.72      493 
 58.74      567 
 58.76      573 
 58.78      520 
 58.8       513 
 58.82      480 
 58.84      560 
 58.86      600 
 58.88      393 
 58.9       453 
 58.92      480 
 58.94      620 
 58.96      547 
 58.98      600 
 59         467 
 59.02      493 
 59.04      520 
 59.06      560 
 59.08      600 
 59.1       447 
 59.12      473 
 59.14      620 
 59.16      520 
 59.18      527 
 59.2       467 
 59.22      407 
 59.24      560 
 59.26      533 
 59.28      533 
 59.3       467 
 59.32      567 
 59.34      520 
 59.36      527 
 59.38      480 
 59.4       473 
 59.42      467 
 59.44      513 
 59.46      367 
 59.48      440 
 59.5       440 
 59.52      300 
 59.54      433 
 59.56      420 
 59.58      487 
 59.6       440 
 59.62      407 
 59.64      473 
 59.66      467 
 59.68      433 
 59.7       480 
 59.72      440 
 59.74      473 
 59.76      453 
 59.78      553 
 59.8       593 
 59.82      467 
 59.84      473 
 59.86      500 
 59.88      520 
 59.9       480 
 59.92      413 
 59.94      500 
 59.96      407 
 59.98      373 
 60         420 
 60.02      467 
 60.04      553 
 60.06      493 
 60.08      453 
 60.1       507 
 60.12      447 
 60.14      467 
 60.16      433 
 60.18      460 
 60.2       487 
 60.22      447 
 60.24      493 
 60.26      487 
 60.28      433 
 60.3       420 
 60.32      453 
 60.34      453 
 60.36      353 
 60.38      460 
 60.4       500 
 60.42      553 
 60.44      433 
 60.46      447 
 60.48      473 
 60.5       453 
 60.52      440 
 60.54      693 
 60.56      433 
 60.58      520 
 60.6       520 
 60.62      500 
 60.64      393 
 60.66      447 
 60.68      513 
 60.7       513 
 60.72      547 
 60.74      560 
 60.76      587 
 60.78      620 
 60.8       560 
 60.82      540 
 60.84      553 
 60.86      560 
 60.88      493 
 60.9       520 
 60.92      440 
 60.94      467 
 60.96      513 
 60.98      473 
 61         527 
 61.02      500 
 61.04      453 
 61.06      527 
 61.08      473 
 61.1       580 
 61.12      600 
 61.14      547 
 61.16      480 
 61.18      447 
 61.2       513 
 61.22      533 
 61.24      587 
 61.26      713 
 61.28      600 
 61.3       633 
 61.32      573 
 61.34      687 
 61.36      687 
 61.38      727 
 61.4       687 
 61.42      600 
 61.44      760 
 61.46      820 
 61.48      853 
 61.5       840 
 61.52      1140 
 61.54      1027 
 61.56      1220 
 61.58      1447 
 61.6       1513 
 61.62      1747 
 61.64      1847 
 61.66      2067 
 61.68      2553 
 61.7       2807 
 61.72      3420 
 61.74      3753 
 61.76      4080 
 61.78      4520 
 61.8       4973 
 61.82      5047 
 61.84      4793 
 61.86      4960 
 61.88      4847 
 61.9       4560 
 61.92      4113 
 61.94      4240 
 61.96      4153 
 61.98      3747 
 62         3380 
 62.02      2847 
 62.04      2827 
 62.06      2593 
 62.08      2353 
 62.1       2020 
 62.12      1900 
 62.14      1653 
 62.16      1513 
 62.18      1420 
 62.2       1227 
 62.22      1227 
 62.24      1153 
 62.26      833 
 62.28      1013 
 62.3       887 
 62.32      887 
 62.34      833 
 62.36      767 
 62.38      760 
 62.4       767 
 62.42      793 
 62.44      773 
 62.46      720 
 62.48      587 
 62.5       593 
 62.52      580 
 62.54      553 
 62.56      600 
 62.58      647 
 62.6       533 
 62.62      580 
 62.64      527 
 62.66      527 
 62.68      440 
 62.7       453 
 62.72      500 
 62.74      533 
 62.76      547 
 62.78      447 
 62.8       473 
 62.82      387 
 62.84      527 
 62.86      487 
 62.88      427 
 62.9       513 
 62.92      467 
 62.94      393 
 62.96      560 
 62.98      427 
 63         507 
 63.02      520 
 63.04      520 
 63.06      567 
 63.08      433 
 63.1       453 
 63.12      453 
 63.14      400 
 63.16      480 
 63.18      547 
 63.2       467 
 63.22      520 
 63.24      447 
 63.26      613 
 63.28      507 
 63.3       420 
 63.32      473 
 63.34      487 
 63.36      487 
 63.38      427 
 63.4       473 
 63.42      547 
 63.44      527 
 63.46      580 
 63.48      520 
 63.5       580 
 63.52      553 
 63.54      553 
 63.56      513 
 63.58      533 
 63.6       527 
 63.62      500 
 63.64      520 
 63.66      493 
 63.68      640 
 63.7       513 
 63.72      473 
 63.74      460 
 63.76      467 
 63.78      453 
 63.8       560 
 63.82      540 
 63.84      547 
 63.86      447 
 63.88      473 
 63.9       380 
 63.92      493 
 63.94      427 
 63.96      487 
 63.98      493 
 64         447 
 64.02      507 
 64.04      480 
 64.06      547 
 64.08      500 
 64.1       420 
 64.12      440 
 64.14      427 
 64.16      460 
 64.18      420 
 64.2       433 
 64.22      520 
 64.24      500 
 64.26      567 
 64.28      627 
 64.3       480 
 64.32      613 
 64.34      533 
 64.36      593 
 64.38      513 
 64.4       660 
 64.42      533 
 64.44      580 
 64.46      660 
 64.48      620 
 64.5       653 
 64.52      747 
 64.54      700 
 64.56      773 
 64.58      727 
 64.6       813 
 64.62      947 
 64.64      920 
 64.66      987 
 64.68      940 
 64.7       987 
 64.72      1167 
 64.74      1380 
 64.76      1453 
 64.78      1940 
 64.8       2207 
 64.82      2600 
 64.84      3147 
 64.86      3460 
 64.88      3620 
 64.9       3913 
 64.92      4193 
 64.94      4087 
 64.96      3740 
 64.98      3620 
 65         3640 
 65.02      3453 
 65.04      3820 
 65.06      3387 
 65.08      4113 
 65.1       4180 
 65.12      4107 
 65.14      4093 
 65.16      4187 
 65.18      3720 
 65.2       3320 
 65.22      3273 
 65.24      2987 
 65.26      2853 
 65.28      2747 
 65.3       2567 
 65.32      2313 
 65.34      2333 
 65.36      2260 
 65.38      1967 
 65.4       1900 
 65.42      1593 
 65.44      1693 
 65.46      1520 
 65.48      1367 
 65.5       1287 
 65.52      1193 
 65.54      1147 
 65.56      1340 
 65.58      1273 
 65.6       1287 
 65.62      1327 
 65.64      1467 
 65.66      1280 
 65.68      1160 
 65.7       1087 
 65.72      1080 
 65.74      1007 
 65.76      1133 
 65.78      1113 
 65.8       960 
 65.82      940 
 65.84      993 
 65.86      867 
 65.88      727 
 65.9       747 
 65.92      820 
 65.94      787 
 65.96      753 
 65.98      600 
 66         633 
 66.02      667 
 66.04      580 
 66.06      593 
 66.08      527 
 66.1       560 
 66.12      527 
 66.14      473 
 66.16      487 
 66.18      487 
 66.2       593 
 66.22      640 
 66.24      527 
 66.26      427 
 66.28      560 
 66.3       453 
 66.32      407 
 66.34      500 
 66.36      547 
 66.38      467 
 66.4       480 
 66.42      473 
 66.44      520 
 66.46      560 
 66.48      500 
 66.5       473 
 66.52      440 
 66.54      473 
 66.56      447 
 66.58      480 
 66.6       393 
 66.62      520 
 66.64      387 
 66.66      413 
 66.68      427 
 66.7       500 
 66.72      493 
 66.74      433 
 66.76      340 
 66.78      400 
 66.8       427 
 66.82      553 
 66.84      360 
 66.86      513 
 66.88      433 
 66.9       413 
 66.92      467 
 66.94      373 
 66.96      433 
 66.98      360 
 67         367 
 67.02      333 
 67.04      407 
 67.06      453 
 67.08      527 
 67.1       400 
 67.12      413 
 67.14      413 
 67.16      333 
 67.18      407 
 67.2       487 
 67.22      380 
 67.24      393 
 67.26      373 
 67.28      487 
 67.3       433 
 67.32      407 
 67.34      393 
 67.36      300 
 67.38      387 
 67.4       440 
 67.42      453 
 67.44      407 
 67.46      413 
 67.48      420 
 67.5       333 
 67.52      460 
 67.54      427 
 67.56      427 
 67.58      453 
 67.6       373 
 67.62      313 
 67.64      487 
 67.66      347 
 67.68      360 
 67.7       387 
 67.72      440 
 67.74      300 
 67.76      387 
 67.78      413 
 67.8       313 
 67.82      373 
 67.84      353 
 67.86      367 
 67.88      447 
 67.9       480 
 67.92      413 
 67.94      413 
 67.96      407 
 67.98      393 
 68         427 
 68.02      413 
 68.04      487 
 68.06      433 
 68.08      420 
 68.1       473 
 68.12      473 
 68.14      460 
 68.16      473 
 68.18      453 
 68.2       500 
 68.22      427 
 68.24      373 
 68.26      500 
 68.28      453 
 68.3       467 
 68.32      400 
 68.34      500 
 68.36      460 
 68.38      413 
 68.4       467 
 68.42      467 
 68.44      473 
 68.46      360 
 68.48      347 
 68.5       367 
 68.52      433 
 68.54      473 
 68.56      367 
 68.58      380 
 68.6       453 
 68.62      440 
 68.64      367 
 68.66      327 
 68.68      387 
 68.7       433 
 68.72      400 
 68.74      360 
 68.76      360 
 68.78      373 
 68.8       460 
 68.82      393 
 68.84      340 
 68.86      327 
 68.88      353 
 68.9       353 
 68.92      420 
 68.94      387 
 68.96      420 
 68.98      473 
 69         407 
 69.02      367 
 69.04      367 
 69.06      400 
 69.08      340 
 69.1       380 
 69.12      380 
 69.14      353 
 69.16      440 
 69.18      307 
 69.2       440 
 69.22      333 
 69.24      340 
 69.26      387 
 69.28      367 
 69.3       407 
 69.32      353 
 69.34      353 
 69.36      340 
 69.38      433 
 69.4       400 
 69.42      447 
 69.44      480 
 69.46      353 
 69.48      400 
 69.5       407 
 69.52      347 
 69.54      400 
 69.56      387 
 69.58      360 
 69.6       307 
 69.62      353 
 69.64      467 
 69.66      420 
 69.68      367 
 69.7       527 
 69.72      413 
 69.74      480 
 69.76      380 
 69.78      453 
 69.8       433 
 69.82      373 
 69.84      367 
 69.86      447 
 69.88      307 
 69.9       380 
 69.92      400 
 69.94      353 
 69.96      320 
 69.98      440 
 70         393 
 70.02      467 
 70.04      407 
 70.06      373 
 70.08      327 
 70.1       420 
 70.12      407 
 70.14      387 
 70.16      340 
 70.18      433 
 70.2       487 
 70.22      420 
 70.24      440 
 70.26      527 
 70.28      373 
 70.3       473 
 70.32      480 
 70.34      473 
 70.36      427 
 70.38      427 
 70.4       407 
 70.42      440 
 70.44      433 
 70.46      560 
 70.48      533 
 70.5       513 
 70.52      513 
 70.54      413 
 70.56      493 
 70.58      487 
 70.6       487 
 70.62      473 
 70.64      593 
 70.66      493 
 70.68      473 
 70.7       560 
 70.72      633 
 70.74      573 
 70.76      567 
 70.78      613 
 70.8       587 
 70.82      613 
 70.84      633 
 70.86      807 
 70.88      847 
 70.9       707 
 70.92      867 
 70.94      980 
 70.96      1047 
 70.98      933 
 71         1000 
 71.02      1173 
 71.04      1333 
 71.06      1487 
 71.08      1753 
 71.1       2193 
 71.12      2513 
 71.14      2580 
 71.16      3160 
 71.18      3413 
 71.2       3687 
 71.22      3287 
 71.24      3807 
 71.26      3807 
 71.28      3840 
 71.3       3733 
 71.32      3660 
 71.34      3680 
 71.36      3947 
 71.38      4300 
 71.4       4020 
 71.42      4100 
 71.44      3733 
 71.46      3380 
 71.48      3193 
 71.5       3120 
 71.52      2927 
 71.54      2733 
 71.56      2527 
 71.58      2580 
 71.6       1953 
 71.62      2107 
 71.64      2100 
 71.66      1733 
 71.68      1493 
 71.7       1580 
 71.72      1507 
 71.74      1240 
 71.76      1147 
 71.78      1040 
 71.8       960 
 71.82      1113 
 71.84      1027 
 71.86      887 
 71.88      633 
 71.9       920 
 71.92      820 
 71.94      827 
 71.96      767 
 71.98      913 
 72         867 
 72.02      740 
 72.04      647 
 72.06      693 
 72.08      720 
 72.1       633 
 72.12      620 
 72.14      700 
 72.16      593 
 72.18      593 
 72.2       613 
 72.22      600 
 72.24      460 
 72.26      593 
 72.28      547 
 72.3       580 
 72.32      547 
 72.34      533 
 72.36      587 
 72.38      627 
 72.4       533 
 72.42      513 
 72.44      453 
 72.46      407 
 72.48      553 
 72.5       647 
 72.52      480 
 72.54      513 
 72.56      467 
 72.58      593 
 72.6       493 
 72.62      560 
 72.64      593 
 72.66      607 
 72.68      493 
 72.7       533 
 72.72      513 
 72.74      447 
 72.76      513 
 72.78      487 
 72.8       513 
 72.82      540 
 72.84      553 
 72.86      593 
 72.88      640 
 72.9       693 
 72.92      727 
 72.94      780 
 72.96      667 
 72.98      747 
 73         733 
 73.02      787 
 73.04      733 
 73.06      707 
 73.08      700 
 73.1       673 
 73.12      700 
 73.14      613 
 73.16      607 
 73.18      647 
 73.2       633 
 73.22      653 
 73.24      580 
 73.26      633 
 73.28      660 
 73.3       447 
 73.32      580 
 73.34      500 
 73.36      593 
 73.38      440 
 73.4       413 
 73.42      467 
 73.44      393 
 73.46      393 
 73.48      407 
 73.5       413 
 73.52      533 
 73.54      353 
 73.56      400 
 73.58      420 
 73.6       373 
 73.62      360 
 73.64      353 
 73.66      453 
 73.68      540 
 73.7       493 
 73.72      413 
 73.74      460 
 73.76      507 
 73.78      373 
 73.8       493 
 73.82      487 
 73.84      567 
 73.86      700 
 73.88      727 
 73.9       627 
 73.92      693 
 73.94      627 
 73.96      660 
 73.98      660 
 74         833 
 74.02      787 
 74.04      687 
 74.06      760 
 74.08      627 
 74.1       547 
 74.12      513 
 74.14      527 
 74.16      667 
 74.18      613 
 74.2       500 
 74.22      580 
 74.24      607 
 74.26      567 
 74.28      607 
 74.3       487 
 74.32      400 
 74.34      407 
 74.36      453 
 74.38      520 
 74.4       507 
 74.42      473 
 74.44      507 
 74.46      460 
 74.48      567 
 74.5       447 
 74.52      353 
 74.54      480 
 74.56      393 
 74.58      427 
 74.6       460 
 74.62      413 
 74.64      500 
 74.66      473 
 74.68      473 
 74.7       487 
 74.72      460 
 74.74      413 
 74.76      507 
 74.78      353 
 74.8       413 
 74.82      473 
 74.84      500 
 74.86      633 
 74.88      540 
 74.9       560 
 74.92      547 
 74.94      560 
 74.96      633 
 74.98      560 
 75         600 
 75.02      580 
 75.04      660 
 75.06      527 
 75.08      600 
 75.1       927 
 75.12      773 
 75.14      807 
 75.16      820 
 75.18      1100 
 75.2       1267 
 75.22      1187 
 75.24      1460 
 75.26      1533 
 75.28      1573 
 75.3       1407 
 75.32      1587 
 75.34      1527 
 75.36      1373 
 75.38      1260 
 75.4       1220 
 75.42      1187 
 75.44      1320 
 75.46      1073 
 75.48      1080 
 75.5       1267 
 75.52      1253 
 75.54      1053 
 75.56      1047 
 75.58      927 
 75.6       893 
 75.62      887 
 75.64      680 
 75.66      680 
 75.68      647 
 75.7       547 
 75.72      513 
 75.74      560 
 75.76      507 
 75.78      547 
 75.8       467 
 75.82      433 
 75.84      440 
 75.86      400 
 75.88      593 
 75.9       453 
 75.92      533 
 75.94      447 
 75.96      400 
 75.98      400 
 76         467 
 76.02      387 
 76.04      367 
 76.06      380 
 76.08      420 
 76.1       407 
 76.12      480 
 76.14      447 
 76.16      493 
 76.18      487 
 76.2       560 
 76.22      573 
 76.24      553 
 76.26      567 
 76.28      693 
 76.3       700 
 76.32      853 
 76.34      807 
 76.36      813 
 76.38      873 
 76.4       1033 
 76.42      953 
 76.44      1267 
 76.46      1200 
 76.48      1140 
 76.5       1213 
 76.52      1280 
 76.54      1133 
 76.56      1080 
 76.58      1167 
 76.6       1047 
 76.62      953 
 76.64      1027 
 76.66      947 
 76.68      927 
 76.7       933 
 76.72      873 
 76.74      873 
 76.76      987 
 76.78      780 
 76.8       653 
 76.82      593 
 76.84      613 
 76.86      527 
 76.88      427 
 76.9       640 
 76.92      420 
 76.94      447 
 76.96      433 
 76.98      493 
 77         407 
 77.02      447 
 77.04      453 
 77.06      413 
 77.08      447 
 77.1       360 
 77.12      353 
 77.14      387 
 77.16      367 
 77.18      400 
 77.2       373 
 77.22      340 
 77.24      273 
 77.26      353 
 77.28      413 
 77.3       380 
 77.32      273 
 77.34      300 
 77.36      313 
 77.38      293 
 77.4       300 
 77.42      327 
 77.44      360 
 77.46      307 
 77.48      333 
 77.5       340 
 77.52      393 
 77.54      313 
 77.56      380 
 77.58      307 
 77.6       300 
 77.62      393 
 77.64      267 
 77.66      373 
 77.68      267 
 77.7       340 
 77.72      340 
 77.74      333 
 77.76      367 
 77.78      400 
 77.8       427 
 77.82      380 
 77.84      273 
 77.86      387 
 77.88      347 
 77.9       300 
 77.92      207 
 77.94      353 
 77.96      340 
 77.98      327 
 78         280 
 78.02      433 
 78.04      307 
 78.06      273 
 78.08      387 
 78.1       360 
 78.12      400 
 78.14      360 
 78.16      300 
 78.18      307 
 78.2       380 
 78.22      347 
 78.24      400 
 78.26      307 
 78.28      387 
 78.3       293 
 78.32      280 
 78.34      300 
 78.36      347 
 78.38      313 
 78.4       293 
 78.42      387 
 78.44      307 
 78.46      360 
 78.48      373 
 78.5       307 
 78.52      333 
 78.54      347 
 78.56      353 
 78.58      400 
 78.6       413 
 78.62      433 
 78.64      500 
 78.66      487 
 78.68      453 
 78.7       673 
 78.72      627 
 78.74      760 
 78.76      707 
 78.78      787 
 78.8       893 
 78.82      740 
 78.84      600 
 78.86      747 
 78.88      840 
 78.9       680 
 78.92      707 
 78.94      633 
 78.96      527 
 78.98      767 
 79         687 
 79.02      773 
 79.04      793 
 79.06      733 
 79.08      680 
 79.1       727 
 79.12      673 
 79.14      727 
 79.16      693 
 79.18      673 
 79.2       680 
 79.22      633 
 79.24      760 
 79.26      733 
 79.28      753 
 79.3       767 
 79.32      660 
 79.34      627 
 79.36      640 
 79.38      593 
 79.4       587 
 79.42      627 
 79.44      600 
 79.46      627 
 79.48      553 
 79.5       613 
 79.52      600 
 79.54      580 
 79.56      647 
 79.58      653 
 79.6       400 
 79.62      387 
 79.64      340 
 79.66      353 
 79.68      480 
 79.7       433 
 79.72      380 
 79.74      360 
 79.76      380 
 79.78      420 
 79.8       467 
 79.82      327 
 79.84      387 
 79.86      387 
 79.88      387 
 79.9       373 
 79.92      327 
 79.94      353 
 79.96      313 
 79.98      387 
 80         420 
